Sample:	'C6 1uL_20C(EM)	
File name:	acetonitrile.FDS	
Run date:	'17:05:10, 12/09/2023	
Operator:	IISER	
Comment:	'	
		
Instrument		
Model:	F-7000 FL Spectrophotometer	
Serial number:	3037-001	
ROM Version:	5J14000 12	
Accessory:	Polarization unit	
		
Instrument parameters		
Measurement type:	Wavelength scan	
Scan mode:	Emission	
Data mode:	Fluorescence	
EX WL:	427.0 nm	
EM  Start WL:	440.0 nm	
EM  End WL:	700.0 nm	
Scan speed:	240 nm/min	
Delay:	1.0 s	
EX Slit:	5.0 nm	
EM Slit:	5.0 nm	
PMT Voltage:	700 V	
Response:	2.0 s	
Corrected spectra:	Off	
Shutter control:	On	
EX Polarizer:	0 deg.	
EM Polarizer:	0 deg.	
		
Data points		
nm	Data	
440.0	6.278	
440.2	6.226	
440.4	6.177	
440.6	6.129	
440.8	6.077	
441.0	6.029	
441.2	5.964	
441.4	5.907	
441.6	5.865	
441.8	5.826	
442.0	5.817	
442.2	5.811	
442.4	5.774	
442.6	5.718	
442.8	5.636	
443.0	5.561	
443.2	5.517	
443.4	5.492	
443.6	5.468	
443.8	5.437	
444.0	5.401	
444.2	5.373	
444.4	5.336	
444.6	5.306	
444.8	5.267	
445.0	5.248	
445.2	5.229	
445.4	5.223	
445.6	5.192	
445.8	5.165	
446.0	5.131	
446.2	5.104	
446.4	5.084	
446.6	5.085	
446.8	5.095	
447.0	5.112	
447.2	5.130	
447.4	5.116	
447.6	5.097	
447.8	5.068	
448.0	5.042	
448.2	5.009	
448.4	4.984	
448.6	4.951	
448.8	4.928	
449.0	4.916	
449.2	4.908	
449.4	4.893	
449.6	4.889	
449.8	4.878	
450.0	4.878	
450.2	4.885	
450.4	4.889	
450.6	4.870	
450.8	4.848	
451.0	4.824	
451.2	4.826	
451.4	4.849	
451.6	4.868	
451.8	4.878	
452.0	4.873	
452.2	4.872	
452.4	4.875	
452.6	4.912	
452.8	4.930	
453.0	4.960	
453.2	5.003	
453.4	5.050	
453.6	5.075	
453.8	5.090	
454.0	5.062	
454.2	5.034	
454.4	5.027	
454.6	5.032	
454.8	5.031	
455.0	5.027	
455.2	5.014	
455.4	5.013	
455.6	5.020	
455.8	5.035	
456.0	5.041	
456.2	5.061	
456.4	5.069	
456.6	5.080	
456.8	5.088	
457.0	5.100	
457.2	5.115	
457.4	5.135	
457.6	5.144	
457.8	5.156	
458.0	5.170	
458.2	5.188	
458.4	5.230	
458.6	5.263	
458.8	5.287	
459.0	5.313	
459.2	5.345	
459.4	5.370	
459.6	5.399	
459.8	5.426	
460.0	5.432	
460.2	5.442	
460.4	5.464	
460.6	5.493	
460.8	5.543	
461.0	5.598	
461.2	5.628	
461.4	5.643	
461.6	5.651	
461.8	5.670	
462.0	5.736	
462.2	5.820	
462.4	5.911	
462.6	5.975	
462.8	6.012	
463.0	6.034	
463.2	6.055	
463.4	6.084	
463.6	6.120	
463.8	6.160	
464.0	6.186	
464.2	6.218	
464.4	6.242	
464.6	6.259	
464.8	6.288	
465.0	6.348	
465.2	6.405	
465.4	6.477	
465.6	6.529	
465.8	6.545	
466.0	6.535	
466.2	6.545	
466.4	6.542	
466.6	6.554	
466.8	6.566	
467.0	6.588	
467.2	6.622	
467.4	6.678	
467.6	6.726	
467.8	6.776	
468.0	6.818	
468.2	6.861	
468.4	6.909	
468.6	6.948	
468.8	7.009	
469.0	7.079	
469.2	7.157	
469.4	7.231	
469.6	7.272	
469.8	7.290	
470.0	7.293	
470.2	7.295	
470.4	7.315	
470.6	7.364	
470.8	7.389	
471.0	7.421	
471.2	7.425	
471.4	7.432	
471.6	7.464	
471.8	7.513	
472.0	7.555	
472.2	7.621	
472.4	7.686	
472.6	7.751	
472.8	7.831	
473.0	7.898	
473.2	7.951	
473.4	7.986	
473.6	8.022	
473.8	8.058	
474.0	8.106	
474.2	8.145	
474.4	8.187	
474.6	8.207	
474.8	8.230	
475.0	8.252	
475.2	8.281	
475.4	8.287	
475.6	8.296	
475.8	8.297	
476.0	8.293	
476.2	8.310	
476.4	8.356	
476.6	8.393	
476.8	8.396	
477.0	8.387	
477.2	8.349	
477.4	8.321	
477.6	8.305	
477.8	8.303	
478.0	8.317	
478.2	8.355	
478.4	8.376	
478.6	8.376	
478.8	8.343	
479.0	8.305	
479.2	8.275	
479.4	8.261	
479.6	8.271	
479.8	8.301	
480.0	8.314	
480.2	8.309	
480.4	8.274	
480.6	8.236	
480.8	8.232	
481.0	8.246	
481.2	8.250	
481.4	8.246	
481.6	8.262	
481.8	8.283	
482.0	8.303	
482.2	8.276	
482.4	8.234	
482.6	8.169	
482.8	8.141	
483.0	8.130	
483.2	8.143	
483.4	8.132	
483.6	8.141	
483.8	8.133	
484.0	8.134	
484.2	8.121	
484.4	8.115	
484.6	8.082	
484.8	8.080	
485.0	8.087	
485.2	8.121	
485.4	8.146	
485.6	8.174	
485.8	8.193	
486.0	8.228	
486.2	8.263	
486.4	8.281	
486.6	8.277	
486.8	8.295	
487.0	8.323	
487.2	8.352	
487.4	8.393	
487.6	8.420	
487.8	8.440	
488.0	8.468	
488.2	8.491	
488.4	8.499	
488.6	8.516	
488.8	8.540	
489.0	8.563	
489.2	8.600	
489.4	8.623	
489.6	8.601	
489.8	8.580	
490.0	8.565	
490.2	8.571	
490.4	8.615	
490.6	8.644	
490.8	8.647	
491.0	8.659	
491.2	8.660	
491.4	8.660	
491.6	8.672	
491.8	8.672	
492.0	8.665	
492.2	8.664	
492.4	8.660	
492.6	8.654	
492.8	8.649	
493.0	8.638	
493.2	8.621	
493.4	8.622	
493.6	8.614	
493.8	8.605	
494.0	8.553	
494.2	8.498	
494.4	8.437	
494.6	8.398	
494.8	8.334	
495.0	8.291	
495.2	8.232	
495.4	8.177	
495.6	8.112	
495.8	8.086	
496.0	8.061	
496.2	8.049	
496.4	8.039	
496.6	8.019	
496.8	7.978	
497.0	7.934	
497.2	7.904	
497.4	7.867	
497.6	7.843	
497.8	7.830	
498.0	7.799	
498.2	7.746	
498.4	7.713	
498.6	7.678	
498.8	7.632	
499.0	7.580	
499.2	7.526	
499.4	7.459	
499.6	7.407	
499.8	7.368	
500.0	7.334	
500.2	7.324	
500.4	7.317	
500.6	7.295	
500.8	7.280	
501.0	7.249	
501.2	7.204	
501.4	7.152	
501.6	7.109	
501.8	7.064	
502.0	7.044	
502.2	7.035	
502.4	7.019	
502.6	7.000	
502.8	6.986	
503.0	6.949	
503.2	6.907	
503.4	6.874	
503.6	6.844	
503.8	6.829	
504.0	6.813	
504.2	6.779	
504.4	6.748	
504.6	6.712	
504.8	6.688	
505.0	6.667	
505.2	6.660	
505.4	6.631	
505.6	6.610	
505.8	6.581	
506.0	6.580	
506.2	6.572	
506.4	6.562	
506.6	6.516	
506.8	6.459	
507.0	6.406	
507.2	6.401	
507.4	6.402	
507.6	6.407	
507.8	6.408	
508.0	6.406	
508.2	6.396	
508.4	6.389	
508.6	6.359	
508.8	6.329	
509.0	6.304	
509.2	6.286	
509.4	6.261	
509.6	6.227	
509.8	6.182	
510.0	6.123	
510.2	6.073	
510.4	6.018	
510.6	5.973	
510.8	5.925	
511.0	5.881	
511.2	5.829	
511.4	5.786	
511.6	5.752	
511.8	5.735	
512.0	5.718	
512.2	5.712	
512.4	5.706	
512.6	5.715	
512.8	5.737	
513.0	5.751	
513.2	5.749	
513.4	5.736	
513.6	5.720	
513.8	5.713	
514.0	5.713	
514.2	5.701	
514.4	5.687	
514.6	5.664	
514.8	5.623	
515.0	5.581	
515.2	5.549	
515.4	5.507	
515.6	5.462	
515.8	5.432	
516.0	5.383	
516.2	5.329	
516.4	5.294	
516.6	5.252	
516.8	5.214	
517.0	5.181	
517.2	5.127	
517.4	5.067	
517.6	5.046	
517.8	5.029	
518.0	5.027	
518.2	5.007	
518.4	4.976	
518.6	4.950	
518.8	4.944	
519.0	4.946	
519.2	4.947	
519.4	4.925	
519.6	4.887	
519.8	4.838	
520.0	4.790	
520.2	4.741	
520.4	4.716	
520.6	4.686	
520.8	4.669	
521.0	4.640	
521.2	4.621	
521.4	4.600	
521.6	4.608	
521.8	4.602	
522.0	4.604	
522.2	4.577	
522.4	4.543	
522.6	4.523	
522.8	4.513	
523.0	4.496	
523.2	4.511	
523.4	4.506	
523.6	4.489	
523.8	4.466	
524.0	4.438	
524.2	4.410	
524.4	4.407	
524.6	4.385	
524.8	4.368	
525.0	4.332	
525.2	4.287	
525.4	4.234	
525.6	4.177	
525.8	4.114	
526.0	4.074	
526.2	4.038	
526.4	4.034	
526.6	4.040	
526.8	4.041	
527.0	4.027	
527.2	3.997	
527.4	3.953	
527.6	3.938	
527.8	3.940	
528.0	3.957	
528.2	3.966	
528.4	3.958	
528.6	3.928	
528.8	3.893	
529.0	3.858	
529.2	3.829	
529.4	3.817	
529.6	3.820	
529.8	3.821	
530.0	3.797	
530.2	3.759	
530.4	3.717	
530.6	3.690	
530.8	3.669	
531.0	3.645	
531.2	3.609	
531.4	3.576	
531.6	3.548	
531.8	3.526	
532.0	3.515	
532.2	3.498	
532.4	3.487	
532.6	3.477	
532.8	3.463	
533.0	3.452	
533.2	3.457	
533.4	3.455	
533.6	3.456	
533.8	3.447	
534.0	3.413	
534.2	3.378	
534.4	3.351	
534.6	3.324	
534.8	3.309	
535.0	3.303	
535.2	3.292	
535.4	3.278	
535.6	3.255	
535.8	3.215	
536.0	3.163	
536.2	3.105	
536.4	3.056	
536.6	3.016	
536.8	2.987	
537.0	2.965	
537.2	2.936	
537.4	2.894	
537.6	2.861	
537.8	2.838	
538.0	2.820	
538.2	2.801	
538.4	2.777	
538.6	2.763	
538.8	2.753	
539.0	2.750	
539.2	2.743	
539.4	2.725	
539.6	2.704	
539.8	2.691	
540.0	2.671	
540.2	2.660	
540.4	2.647	
540.6	2.625	
540.8	2.600	
541.0	2.577	
541.2	2.563	
541.4	2.559	
541.6	2.556	
541.8	2.559	
542.0	2.553	
542.2	2.538	
542.4	2.510	
542.6	2.474	
542.8	2.428	
543.0	2.398	
543.2	2.367	
543.4	2.351	
543.6	2.338	
543.8	2.333	
544.0	2.329	
544.2	2.317	
544.4	2.296	
544.6	2.279	
544.8	2.263	
545.0	2.258	
545.2	2.267	
545.4	2.264	
545.6	2.252	
545.8	2.226	
546.0	2.183	
546.2	2.138	
546.4	2.107	
546.6	2.086	
546.8	2.068	
547.0	2.050	
547.2	2.029	
547.4	2.005	
547.6	1.994	
547.8	1.978	
548.0	1.971	
548.2	1.959	
548.4	1.949	
548.6	1.942	
548.8	1.939	
549.0	1.919	
549.2	1.902	
549.4	1.887	
549.6	1.873	
549.8	1.860	
550.0	1.843	
550.2	1.820	
550.4	1.786	
550.6	1.774	
550.8	1.773	
551.0	1.787	
551.2	1.795	
551.4	1.790	
551.6	1.774	
551.8	1.769	
552.0	1.763	
552.2	1.767	
552.4	1.760	
552.6	1.740	
552.8	1.717	
553.0	1.701	
553.2	1.685	
553.4	1.669	
553.6	1.640	
553.8	1.607	
554.0	1.577	
554.2	1.562	
554.4	1.555	
554.6	1.556	
554.8	1.566	
555.0	1.576	
555.2	1.578	
555.4	1.576	
555.6	1.580	
555.8	1.577	
556.0	1.585	
556.2	1.589	
556.4	1.587	
556.6	1.582	
556.8	1.576	
557.0	1.562	
557.2	1.546	
557.4	1.537	
557.6	1.537	
557.8	1.531	
558.0	1.507	
558.2	1.482	
558.4	1.444	
558.6	1.421	
558.8	1.402	
559.0	1.384	
559.2	1.372	
559.4	1.366	
559.6	1.357	
559.8	1.350	
560.0	1.332	
560.2	1.311	
560.4	1.299	
560.6	1.283	
560.8	1.273	
561.0	1.268	
561.2	1.267	
561.4	1.273	
561.6	1.283	
561.8	1.291	
562.0	1.301	
562.2	1.302	
562.4	1.297	
562.6	1.291	
562.8	1.287	
563.0	1.293	
563.2	1.294	
563.4	1.278	
563.6	1.253	
563.8	1.222	
564.0	1.197	
564.2	1.188	
564.4	1.173	
564.6	1.168	
564.8	1.169	
565.0	1.174	
565.2	1.184	
565.4	1.199	
565.6	1.198	
565.8	1.194	
566.0	1.181	
566.2	1.169	
566.4	1.162	
566.6	1.156	
566.8	1.147	
567.0	1.138	
567.2	1.122	
567.4	1.110	
567.6	1.108	
567.8	1.110	
568.0	1.119	
568.2	1.137	
568.4	1.147	
568.6	1.152	
568.8	1.159	
569.0	1.165	
569.2	1.167	
569.4	1.162	
569.6	1.144	
569.8	1.125	
570.0	1.115	
570.2	1.106	
570.4	1.096	
570.6	1.073	
570.8	1.046	
571.0	1.026	
571.2	1.006	
571.4	0.995	
571.6	0.991	
571.8	0.988	
572.0	0.977	
572.2	0.963	
572.4	0.945	
572.6	0.930	
572.8	0.915	
573.0	0.905	
573.2	0.905	
573.4	0.911	
573.6	0.921	
573.8	0.929	
574.0	0.919	
574.2	0.898	
574.4	0.883	
574.6	0.863	
574.8	0.850	
575.0	0.850	
575.2	0.852	
575.4	0.853	
575.6	0.855	
575.8	0.848	
576.0	0.844	
576.2	0.843	
576.4	0.846	
576.6	0.845	
576.8	0.843	
577.0	0.838	
577.2	0.827	
577.4	0.814	
577.6	0.804	
577.8	0.793	
578.0	0.785	
578.2	0.782	
578.4	0.777	
578.6	0.781	
578.8	0.786	
579.0	0.787	
579.2	0.787	
579.4	0.778	
579.6	0.772	
579.8	0.780	
580.0	0.788	
580.2	0.801	
580.4	0.809	
580.6	0.795	
580.8	0.780	
581.0	0.775	
581.2	0.769	
581.4	0.777	
581.6	0.785	
581.8	0.774	
582.0	0.764	
582.2	0.757	
582.4	0.751	
582.6	0.755	
582.8	0.761	
583.0	0.765	
583.2	0.779	
583.4	0.796	
583.6	0.808	
583.8	0.809	
584.0	0.801	
584.2	0.790	
584.4	0.783	
584.6	0.779	
584.8	0.776	
585.0	0.764	
585.2	0.754	
585.4	0.746	
585.6	0.745	
585.8	0.745	
586.0	0.747	
586.2	0.738	
586.4	0.733	
586.6	0.730	
586.8	0.726	
587.0	0.716	
587.2	0.705	
587.4	0.699	
587.6	0.703	
587.8	0.707	
588.0	0.707	
588.2	0.700	
588.4	0.685	
588.6	0.665	
588.8	0.645	
589.0	0.627	
589.2	0.615	
589.4	0.613	
589.6	0.622	
589.8	0.626	
590.0	0.631	
590.2	0.630	
590.4	0.616	
590.6	0.602	
590.8	0.596	
591.0	0.601	
591.2	0.613	
591.4	0.619	
591.6	0.619	
591.8	0.612	
592.0	0.604	
592.2	0.602	
592.4	0.598	
592.6	0.592	
592.8	0.588	
593.0	0.583	
593.2	0.575	
593.4	0.581	
593.6	0.585	
593.8	0.585	
594.0	0.578	
594.2	0.563	
594.4	0.549	
594.6	0.543	
594.8	0.538	
595.0	0.543	
595.2	0.547	
595.4	0.543	
595.6	0.538	
595.8	0.525	
596.0	0.517	
596.2	0.512	
596.4	0.506	
596.6	0.502	
596.8	0.506	
597.0	0.513	
597.2	0.526	
597.4	0.525	
597.6	0.515	
597.8	0.513	
598.0	0.516	
598.2	0.519	
598.4	0.519	
598.6	0.512	
598.8	0.500	
599.0	0.499	
599.2	0.495	
599.4	0.497	
599.6	0.500	
599.8	0.503	
600.0	0.503	
600.2	0.501	
600.4	0.491	
600.6	0.480	
600.8	0.469	
601.0	0.464	
601.2	0.458	
601.4	0.449	
601.6	0.442	
601.8	0.432	
602.0	0.426	
602.2	0.427	
602.4	0.422	
602.6	0.411	
602.8	0.406	
603.0	0.404	
603.2	0.409	
603.4	0.410	
603.6	0.405	
603.8	0.397	
604.0	0.395	
604.2	0.396	
604.4	0.395	
604.6	0.386	
604.8	0.386	
605.0	0.395	
605.2	0.411	
605.4	0.430	
605.6	0.440	
605.8	0.438	
606.0	0.436	
606.2	0.428	
606.4	0.423	
606.6	0.422	
606.8	0.431	
607.0	0.446	
607.2	0.463	
607.4	0.473	
607.6	0.477	
607.8	0.468	
608.0	0.458	
608.2	0.446	
608.4	0.435	
608.6	0.428	
608.8	0.429	
609.0	0.431	
609.2	0.432	
609.4	0.434	
609.6	0.430	
609.8	0.417	
610.0	0.408	
610.2	0.401	
610.4	0.395	
610.6	0.393	
610.8	0.390	
611.0	0.386	
611.2	0.383	
611.4	0.382	
611.6	0.382	
611.8	0.382	
612.0	0.391	
612.2	0.407	
612.4	0.418	
612.6	0.424	
612.8	0.426	
613.0	0.427	
613.2	0.435	
613.4	0.443	
613.6	0.447	
613.8	0.441	
614.0	0.433	
614.2	0.420	
614.4	0.410	
614.6	0.405	
614.8	0.404	
615.0	0.400	
615.2	0.399	
615.4	0.394	
615.6	0.401	
615.8	0.408	
616.0	0.416	
616.2	0.416	
616.4	0.419	
616.6	0.417	
616.8	0.417	
617.0	0.411	
617.2	0.401	
617.4	0.390	
617.6	0.386	
617.8	0.385	
618.0	0.384	
618.2	0.387	
618.4	0.384	
618.6	0.378	
618.8	0.366	
619.0	0.354	
619.2	0.345	
619.4	0.344	
619.6	0.345	
619.8	0.349	
620.0	0.353	
620.2	0.359	
620.4	0.363	
620.6	0.365	
620.8	0.361	
621.0	0.355	
621.2	0.353	
621.4	0.352	
621.6	0.357	
621.8	0.362	
622.0	0.369	
622.2	0.372	
622.4	0.371	
622.6	0.362	
622.8	0.356	
623.0	0.346	
623.2	0.335	
623.4	0.327	
623.6	0.317	
623.8	0.305	
624.0	0.298	
624.2	0.293	
624.4	0.288	
624.6	0.287	
624.8	0.286	
625.0	0.287	
625.2	0.298	
625.4	0.312	
625.6	0.323	
625.8	0.325	
626.0	0.323	
626.2	0.318	
626.4	0.318	
626.6	0.317	
626.8	0.321	
627.0	0.324	
627.2	0.323	
627.4	0.324	
627.6	0.323	
627.8	0.315	
628.0	0.311	
628.2	0.309	
628.4	0.305	
628.6	0.312	
628.8	0.316	
629.0	0.318	
629.2	0.319	
629.4	0.317	
629.6	0.311	
629.8	0.310	
630.0	0.308	
630.2	0.308	
630.4	0.306	
630.6	0.303	
630.8	0.298	
631.0	0.297	
631.2	0.292	
631.4	0.289	
631.6	0.290	
631.8	0.293	
632.0	0.292	
632.2	0.290	
632.4	0.284	
632.6	0.277	
632.8	0.269	
633.0	0.263	
633.2	0.259	
633.4	0.255	
633.6	0.253	
633.8	0.259	
634.0	0.263	
634.2	0.270	
634.4	0.277	
634.6	0.276	
634.8	0.271	
635.0	0.271	
635.2	0.270	
635.4	0.271	
635.6	0.273	
635.8	0.268	
636.0	0.272	
636.2	0.273	
636.4	0.274	
636.6	0.274	
636.8	0.274	
637.0	0.273	
637.2	0.275	
637.4	0.268	
637.6	0.264	
637.8	0.265	
638.0	0.273	
638.2	0.283	
638.4	0.283	
638.6	0.275	
638.8	0.270	
639.0	0.267	
639.2	0.270	
639.4	0.269	
639.6	0.266	
639.8	0.262	
640.0	0.261	
640.2	0.259	
640.4	0.259	
640.6	0.257	
640.8	0.254	
641.0	0.249	
641.2	0.242	
641.4	0.235	
641.6	0.234	
641.8	0.237	
642.0	0.236	
642.2	0.234	
642.4	0.231	
642.6	0.228	
642.8	0.227	
643.0	0.226	
643.2	0.222	
643.4	0.222	
643.6	0.226	
643.8	0.232	
644.0	0.239	
644.2	0.247	
644.4	0.251	
644.6	0.254	
644.8	0.255	
645.0	0.258	
645.2	0.261	
645.4	0.260	
645.6	0.261	
645.8	0.264	
646.0	0.263	
646.2	0.263	
646.4	0.262	
646.6	0.252	
646.8	0.243	
647.0	0.233	
647.2	0.221	
647.4	0.214	
647.6	0.208	
647.8	0.203	
648.0	0.204	
648.2	0.209	
648.4	0.214	
648.6	0.219	
648.8	0.218	
649.0	0.214	
649.2	0.211	
649.4	0.207	
649.6	0.203	
649.8	0.206	
650.0	0.207	
650.2	0.211	
650.4	0.214	
650.6	0.209	
650.8	0.206	
651.0	0.208	
651.2	0.205	
651.4	0.210	
651.6	0.215	
651.8	0.220	
652.0	0.225	
652.2	0.227	
652.4	0.223	
652.6	0.220	
652.8	0.216	
653.0	0.213	
653.2	0.213	
653.4	0.220	
653.6	0.229	
653.8	0.232	
654.0	0.232	
654.2	0.225	
654.4	0.219	
654.6	0.218	
654.8	0.215	
655.0	0.210	
655.2	0.204	
655.4	0.197	
655.6	0.194	
655.8	0.198	
656.0	0.205	
656.2	0.210	
656.4	0.210	
656.6	0.201	
656.8	0.192	
657.0	0.183	
657.2	0.180	
657.4	0.177	
657.6	0.180	
657.8	0.182	
658.0	0.189	
658.2	0.194	
658.4	0.196	
658.6	0.198	
658.8	0.200	
659.0	0.204	
659.2	0.214	
659.4	0.222	
659.6	0.228	
659.8	0.235	
660.0	0.239	
660.2	0.242	
660.4	0.243	
660.6	0.240	
660.8	0.236	
661.0	0.236	
661.2	0.244	
661.4	0.249	
661.6	0.253	
661.8	0.251	
662.0	0.252	
662.2	0.257	
662.4	0.267	
662.6	0.276	
662.8	0.278	
663.0	0.272	
663.2	0.265	
663.4	0.264	
663.6	0.271	
663.8	0.279	
664.0	0.279	
664.2	0.269	
664.4	0.255	
664.6	0.240	
664.8	0.227	
665.0	0.220	
665.2	0.215	
665.4	0.213	
665.6	0.213	
665.8	0.213	
666.0	0.214	
666.2	0.219	
666.4	0.219	
666.6	0.221	
666.8	0.220	
667.0	0.215	
667.2	0.216	
667.4	0.214	
667.6	0.207	
667.8	0.201	
668.0	0.198	
668.2	0.190	
668.4	0.188	
668.6	0.188	
668.8	0.189	
669.0	0.192	
669.2	0.199	
669.4	0.202	
669.6	0.201	
669.8	0.194	
670.0	0.189	
670.2	0.184	
670.4	0.189	
670.6	0.201	
670.8	0.214	
671.0	0.222	
671.2	0.229	
671.4	0.232	
671.6	0.232	
671.8	0.227	
672.0	0.219	
672.2	0.213	
672.4	0.213	
672.6	0.218	
672.8	0.218	
673.0	0.213	
673.2	0.203	
673.4	0.200	
673.6	0.201	
673.8	0.207	
674.0	0.212	
674.2	0.209	
674.4	0.203	
674.6	0.204	
674.8	0.205	
675.0	0.205	
675.2	0.202	
675.4	0.194	
675.6	0.185	
675.8	0.179	
676.0	0.173	
676.2	0.171	
676.4	0.171	
676.6	0.171	
676.8	0.171	
677.0	0.171	
677.2	0.172	
677.4	0.175	
677.6	0.177	
677.8	0.175	
678.0	0.173	
678.2	0.167	
678.4	0.170	
678.6	0.175	
678.8	0.179	
679.0	0.183	
679.2	0.187	
679.4	0.189	
679.6	0.196	
679.8	0.200	
680.0	0.201	
680.2	0.202	
680.4	0.204	
680.6	0.208	
680.8	0.215	
681.0	0.221	
681.2	0.224	
681.4	0.223	
681.6	0.217	
681.8	0.209	
682.0	0.209	
682.2	0.209	
682.4	0.212	
682.6	0.221	
682.8	0.226	
683.0	0.232	
683.2	0.238	
683.4	0.239	
683.6	0.236	
683.8	0.234	
684.0	0.230	
684.2	0.230	
684.4	0.233	
684.6	0.234	
684.8	0.233	
685.0	0.227	
685.2	0.224	
685.4	0.219	
685.6	0.215	
685.8	0.213	
686.0	0.212	
686.2	0.209	
686.4	0.217	
686.6	0.227	
686.8	0.236	
687.0	0.241	
687.2	0.241	
687.4	0.237	
687.6	0.232	
687.8	0.231	
688.0	0.225	
688.2	0.221	
688.4	0.221	
688.6	0.222	
688.8	0.219	
689.0	0.217	
689.2	0.210	
689.4	0.209	
689.6	0.215	
689.8	0.221	
690.0	0.223	
690.2	0.220	
690.4	0.214	
690.6	0.209	
690.8	0.208	
691.0	0.215	
691.2	0.223	
691.4	0.232	
691.6	0.242	
691.8	0.243	
692.0	0.237	
692.2	0.234	
692.4	0.227	
692.6	0.223	
692.8	0.224	
693.0	0.229	
693.2	0.234	
693.4	0.238	
693.6	0.241	
693.8	0.247	
694.0	0.258	
694.2	0.265	
694.4	0.262	
694.6	0.255	
694.8	0.253	
695.0	0.250	
695.2	0.245	
695.4	0.233	
695.6	0.232	
695.8	0.243	
696.0	0.258	
696.2	0.267	
696.4	0.266	
696.6	0.253	
696.8	0.250	
697.0	0.249	
697.2	0.251	
697.4	0.250	
697.6	0.246	
697.8	0.238	
698.0	0.230	
698.2	0.231	
698.4	0.237	
698.6	0.243	
698.8	0.248	
699.0	0.249	
699.2	0.250	
699.4	0.258	
699.6	0.267	
699.8	0.274	
700.0	0.278	
		
